L(0,1)		F(1,1)		L(0,2)		L(0,3)		L(0,4)		L(0,5)		F(1,2)		F(1,3)		F(1,4)		F(1,5)		F(1,6)		F(1,7)		T(0,2)	
268  Points		294  Points		255  Points		211  Points		123  Points		94  Points		262  Points		237  Points		223  Points		195  Points		187  Points		115  Points		193  Points	
Freq (MHz)	Vph (m/ms)	Freq (MHz)	Vph (m/ms)	Freq (MHz)	Vph (m/ms)	Freq (MHz)	Vph (m/ms)	Freq (MHz)	Vph (m/ms)	Freq (MHz)	Vph (m/ms)	Freq (MHz)	Vph (m/ms)	Freq (MHz)	Vph (m/ms)	Freq (MHz)	Vph (m/ms)	Freq (MHz)	Vph (m/ms)	Freq (MHz)	Vph (m/ms)	Freq (MHz)	Vph (m/ms)	Freq (MHz)	Vph (m/ms)
0.00144918	3.59976	0.000921188	0.212842	0.219419	1934.49	0.531475	530.369	0.559632	1024.21	0.959925	539.34	0.118611	160.985	0.233793	377.148	0.287953	534.325	0.574676	512.929	0.65592	664.744	0.736848	592.796	0.596452	1372.48
0.00850419	3.59967	0.00192532	0.306191	0.219425	105.831	0.531485	179.435	0.55974	223.331	0.959935	256.686	0.118971	44.1173	0.23386	90.6499	0.288001	115.255	0.574754	186.59	0.655981	222.62	0.736869	230.062	0.596474	249.103
0.0155553	3.59875	0.00326954	0.396409	0.219442	54.4081	0.531507	107.988	0.559986	125.382	0.959953	168.423	0.119735	25.7129	0.234009	51.5468	0.288111	64.6172	0.574905	114.064	0.656103	133.72	0.73691	142.734	0.596528	136.994
0.022599	3.59724	0.0049287	0.482837	0.219471	36.6203	0.53154	77.2381	0.56037	87.2015	0.959978	125.331	0.120887	18.2704	0.23424	36.0389	0.288284	44.9135	0.575128	82.1597	0.656286	95.5783	0.736969	103.467	0.596613	94.4856
0.0296319	3.59513	0.00687455	0.564983	0.219515	27.6012	0.531585	60.1221	0.560891	66.8836	0.960011	99.7986	0.122403	14.272	0.234554	27.7265	0.28852	34.4355	0.575424	64.2211	0.65653	74.3826	0.737047	81.1487	0.596729	72.1189
0.0366506	3.59243	0.0090774	0.642528	0.219575	22.1502	0.531644	49.2187	0.561545	54.2767	0.960051	82.9103	0.124256	11.793	0.234952	22.5493	0.288821	27.9365	0.575791	52.7283	0.656835	60.8953	0.737144	66.7546	0.596876	58.322
0.043651	3.58911	0.011508	0.715335	0.219654	18.5004	0.531717	41.6654	0.562333	45.6962	0.960098	70.9119	0.126414	10.1162	0.235434	19.0182	0.289187	23.5142	0.576228	44.7387	0.657201	51.5605	0.73726	56.7014	0.597054	48.9627
0.0506289	3.58511	0.0141383	0.783398	0.219755	15.8865	0.531805	36.1244	0.563251	39.4825	0.960152	61.9484	0.128846	8.91284	0.236001	16.4584	0.289621	20.3125	0.576736	38.8641	0.657629	44.718	0.737395	49.2832	0.597263	42.1975
0.0575794	3.58039	0.0169422	0.846797	0.219885	13.9232	0.531911	31.8864	0.564296	34.7778	0.960213	54.9978	0.131517	8.01148	0.236656	14.5195	0.290125	17.8888	0.577311	34.3644	0.658119	39.4886	0.73755	43.5844	0.597504	37.08
0.0644979	3.57491	0.0195081	0.898358	0.220048	12.3952	0.532034	28.5406	0.565467	31.0941	0.960282	49.4505	0.134397	7.31371	0.237397	13.0016	0.290701	15.9918	0.577954	30.8084	0.658671	35.3631	0.737723	39.0697	0.597775	33.0741
0.0713778	3.56858	0.0217746	0.939724	0.220249	11.173	0.532178	25.8323	0.56676	28.1332	0.960358	44.9207	0.137053	6.82398	0.238228	11.7823	0.291351	14.4677	0.578663	27.9284	0.659286	32.0261	0.737916	35.405	0.598077	29.8535
0.0782132	3.56135	0.0236973	0.972189	0.220498	10.1741	0.532341	23.5955	0.568173	25.7028	0.960441	41.152	0.139409	6.47212	0.239148	10.7827	0.29208	13.2175	0.579436	25.549	0.659963	29.2721	0.738129	32.3711	0.598411	27.2083
0.0849962	3.55312	0.0252456	0.996782	0.220802	9.34319	0.532525	21.717	0.569704	23.6731	0.960531	37.9674	0.141413	6.21763	0.240159	9.94906	0.292889	12.1743	0.580273	23.5506	0.660704	26.9612	0.738361	29.8183	0.598775	24.9973
0.0917182	3.54378	0.0263988	1.01428	0.221172	8.64212	0.532732	20.1175	0.571349	21.9536	0.960628	35.2411	0.143029	6.03605	0.241262	9.24416	0.293785	11.2917	0.58117	21.8491	0.661508	24.995	0.738614	27.6408	0.59917	23.1219
0.0983691	3.5332	0.0271431	1.02523	0.221619	8.04357	0.532961	18.7392	0.573105	20.4789	0.960732	32.8808	0.144233	5.91223	0.242456	8.64103	0.29477	10.5359	0.582127	20.3832	0.662375	23.3021	0.738886	25.7615	0.599595	21.5114
0.104938	3.52124	0.0282208	1.04062	0.222156	7.52759	0.533214	17.5394	0.574971	19.2008	0.960843	30.8174	0.145011	5.83692	0.243742	8.1197	0.295851	9.88222	0.583141	19.1074	0.663307	21.8298	0.739179	24.1233	0.600051	20.1135
0.11141	3.50772	0.0294024	1.05692	0.222798	7.07923	0.53349	16.4857	0.576944	18.0831	0.96096	28.9983	0.146137	5.73362	0.24512	7.66513	0.297032	9.31205	0.584211	17.9873	0.664304	20.5378	0.739492	22.6826	0.600538	18.8889
0.11777	3.49248	0.0310248	1.07834	0.223458	6.73471	0.53379	15.553	0.57902	17.0979	0.961084	27.3826	0.147371	5.62749	0.246587	7.26572	0.29832	8.81105	0.585335	16.9963	0.665365	19.3954	0.739826	21.406	0.601056	17.8074
0.124001	3.47526	0.0331009	1.10429	0.224104	6.47027	0.534115	14.7218	0.581198	16.2233	0.961215	25.9379	0.149065	5.49251	0.248142	6.91236	0.299721	8.36803	0.586509	16.1134	0.666492	18.3783	0.740181	20.267	0.601604	16.8455
0.130082	3.45585	0.0356434	1.13403	0.224703	6.26962	0.534464	13.9764	0.583475	15.4421	0.961352	24.6386	0.151229	5.33557	0.249567	6.63631	0.301243	7.97418	0.587734	15.322	0.667684	17.4672	0.740557	19.2446	0.602182	15.9845
0.135989	3.43398	0.0386644	1.16674	0.225222	6.12152	0.534837	13.3043	0.585848	14.7403	0.961496	23.4636	0.153874	5.16364	0.25083	6.4213	0.302893	7.6224	0.589005	14.6087	0.668942	16.6465	0.740956	18.3218	0.602791	15.2094
0.141697	3.40939	0.0421744	1.20159	0.225631	6.01814	0.535236	12.6952	0.588316	14.1067	0.961647	22.3961	0.157005	4.9831	0.251908	6.25606	0.304679	7.30695	0.590321	13.9626	0.670266	15.9038	0.741376	17.4848	0.60343	14.508
0.147179	3.38181	0.0457228	1.23379	0.225906	5.95432	0.535659	12.1409	0.590875	13.5321	0.961803	21.422	0.160621	4.79934	0.252779	6.13272	0.306609	7.02312	0.59168	13.3748	0.671655	15.2286	0.74182	16.7223	0.604098	13.8705
0.152406	3.35102	0.0493016	1.26354	0.226319	5.86565	0.536106	11.6342	0.593523	13.0089	0.961966	20.5294	0.164249	4.63621	0.253431	6.04586	0.308691	6.76702	0.59308	12.8377	0.67311	14.6122	0.742287	16.0248	0.604797	13.2886
0.156733	3.32142	0.0529049	1.29104	0.226793	5.77321	0.536578	11.1694	0.596258	12.5305	0.962135	19.7087	0.167873	4.49012	0.253853	5.99188	0.310635	6.56388	0.594518	12.3451	0.674631	14.0476	0.742777	15.3845	0.605526	12.7553
0.160241	3.29413	0.056527	1.31647	0.227484	5.65378	0.537075	10.7415	0.599077	12.0918	0.96231	18.9514	0.171482	4.35819	0.254465	5.91641	0.312392	6.40398	0.595993	11.8917	0.676218	13.5285	0.743292	14.7946	0.606285	12.2649
0.16301	3.27012	0.0601629	1.33998	0.228436	5.51251	0.537597	10.3464	0.601979	11.688	0.962492	18.2506	0.175067	4.23818	0.255139	5.83707	0.313916	6.28022	0.597502	11.4732	0.677869	13.0499	0.743832	14.2494	0.607073	11.8125
0.165113	3.25023	0.0638089	1.36175	0.229716	5.35523	0.538142	9.98042	0.604961	11.3153	0.962679	17.6	0.178617	4.12825	0.256067	5.73345	0.315167	6.18743	0.599044	11.0856	0.679585	12.6072	0.744398	13.7442	0.607891	11.3939
0.16661	3.23512	0.0674613	1.38189	0.23141	5.18816	0.538712	9.64057	0.60802	10.9703	0.962872	16.9946	0.182126	4.02693	0.257261	5.60898	0.316114	6.12189	0.600616	10.7257	0.681365	12.1968	0.744992	13.2748	0.608738	11.0055
0.167546	3.22523	0.0711172	1.40055	0.233637	5.01761	0.539306	9.32416	0.611155	10.6503	0.963071	16.4298	0.185588	3.93306	0.258732	5.4675	0.316732	6.0811	0.602217	10.3906	0.683208	11.8152	0.745613	12.8376	0.609615	10.6442
0.16886	3.21074	0.074774	1.41784	0.236193	4.86762	0.539924	9.0289	0.614363	10.3526	0.963276	15.9016	0.189001	3.84565	0.26049	5.31289	0.317637	6.02399	0.603844	10.0779	0.685112	11.4597	0.746263	12.4293	0.61052	10.3073
0.170248	3.19461	0.0784299	1.43387	0.239101	4.73624	0.540566	8.75277	0.617643	10.0751	0.963486	15.4066	0.192361	3.76392	0.262543	5.14895	0.318643	5.9639	0.605497	9.78537	0.687077	11.1278	0.746944	12.0474	0.611455	9.9924
0.172069	3.17211	0.0820827	1.44874	0.242376	4.62169	0.541232	8.494	0.620991	9.81591	0.963703	14.9418	0.195669	3.68724	0.264626	4.9977	0.320048	5.88534	0.607173	9.5112	0.6891	10.8172	0.747658	11.6894	0.612419	9.69755
0.174262	3.14278	0.0857312	1.46255	0.246025	4.52225	0.541922	8.25103	0.624407	9.57332	0.963925	14.5045	0.198925	3.61507	0.266731	4.85763	0.321888	5.79097	0.608872	9.25371	0.69118	10.526	0.748405	11.3532	0.613411	9.42089
0.176754	3.10616	0.0893744	1.47537	0.250042	4.43627	0.542635	8.02249	0.627887	9.34585	0.964153	14.0923	0.20213	3.54699	0.268847	4.72744	0.324206	5.68379	0.610592	9.01142	0.693315	10.2525	0.749188	11.0369	0.614433	9.16083
0.179466	3.06193	0.0930108	1.48728	0.254412	4.36213	0.543372	7.80716	0.631431	9.13219	0.964387	13.7032	0.205289	3.48264	0.270969	4.60601	0.327056	5.56705	0.612331	8.78304	0.695502	9.99517	0.750008	10.7389	0.615482	8.91594
0.182321	3.00999	0.0966402	1.49836	0.259114	4.2983	0.544132	7.60396	0.635036	8.93116	0.964626	13.3352	0.208403	3.42171	0.27309	4.49241	0.330498	5.44404	0.614089	8.5674	0.697737	9.7526	0.750869	10.4578	0.61656	8.68498
0.184931	2.95738	0.100262	1.50866	0.264116	4.24333	0.544916	7.41191	0.6387	8.74174	0.964872	12.9867	0.21148	3.36397	0.275206	4.3858	0.334123	5.33161	0.615864	8.36349	0.700018	9.52359	0.751773	10.1922	0.617667	8.46682
0.187329	2.9047	0.103875	1.51826	0.269389	4.19592	0.545723	7.23014	0.642422	8.56297	0.965124	12.6563	0.214522	3.30919	0.277312	4.28552	0.337925	5.22875	0.617657	8.17036	0.702341	9.30702	0.752724	9.94091	0.618801	8.26044
0.189551	2.85246	0.107481	1.52721	0.274899	4.15489	0.546553	7.05787	0.646199	8.39403	0.965382	12.3424	0.217535	3.2572	0.279406	4.19095	0.341898	5.13453	0.619465	7.98721	0.7047	9.10189	0.753725	9.70298	0.619963	8.06495
0.191628	2.80111	0.111077	1.53555	0.280613	4.11925	0.547407	6.8944	0.65003	8.23416	0.965647	12.044	0.220524	3.20782	0.281488	4.10159	0.346037	5.04809	0.621288	7.81327	0.707092	8.9073	0.75478	9.47744	0.621153	7.87954
0.193592	2.751	0.114666	1.54334	0.286505	4.08811	0.548169	6.75862	0.653913	8.08268	0.965918	11.7599	0.223495	3.16092	0.283557	4.01702	0.350332	4.96868	0.623126	7.64789	0.70951	8.72241	0.755893	9.26345	0.622371	7.70346
0.195469	2.7024	0.118246	1.55062	0.292547	4.06076	0.548833	6.64748	0.657847	7.93898	0.966196	11.4892	0.226453	3.11636	0.285613	3.93685	0.354774	4.89561	0.624979	7.49044	0.711948	8.54647	0.757071	9.06026	0.623616	7.53605
0.197282	2.65551	0.121818	1.55744	0.298716	4.03659	0.549392	6.55861	0.661829	7.8025	0.966481	11.2308	0.229401	3.07403	0.287659	3.86074	0.359355	4.82824	0.626845	7.34039	0.714401	8.37878	0.758318	8.8672	0.624889	7.37672
0.199052	2.61047	0.125383	1.56383	0.304993	4.01507	0.54984	6.4902	0.665859	7.67272	0.966774	10.9841	0.232346	3.03382	0.289695	3.78842	0.364065	4.76602	0.628726	7.19723	0.716859	8.21869	0.759641	8.68366	0.626188	7.2249
0.200797	2.56736	0.12894	1.56982	0.31136	3.99579	0.550173	6.44092	0.669935	7.54919	0.967075	10.7481	0.235291	2.99561	0.291725	3.71963	0.368895	4.70845	0.630619	7.06049	0.719316	8.06562	0.761046	8.50909	0.627514	7.0801
0.20253	2.52622	0.132491	1.57546	0.317803	3.97841	0.550388	6.40981	0.674055	7.43149	0.967384	10.5224	0.23824	2.95931	0.29375	3.65413	0.373836	4.65506	0.632526	6.92978	0.721762	7.91902	0.762542	8.34299	0.628868	6.94185
0.204266	2.48707	0.136035	1.58076	0.324308	3.96262	0.550699	6.36569	0.678217	7.31922	0.967702	10.3061	0.241197	2.92483	0.295772	3.59172	0.378878	4.60544	0.634199	6.82049	0.72419	7.77839	0.764135	8.1849	0.630069	6.82641
0.206013	2.44989	0.139574	1.58577	0.330865	3.94819	0.551039	6.3185	0.682421	7.21205	0.968029	10.0988	0.244164	2.89208	0.297795	3.53221	0.384012	4.55924	0.635633	6.73052	0.726589	7.64326	0.765832	8.03441	0.631108	6.73149
0.207782	2.41464	0.143107	1.5905	0.337465	3.93491	0.551507	6.25559	0.686665	7.10963	0.968367	9.89991	0.247145	2.86096	0.299819	3.47543	0.389231	4.51612	0.636825	6.65826	0.728951	7.51321	0.767642	7.89115	0.631979	6.65531
0.209579	2.38129	0.146636	1.59498	0.344099	3.92262	0.552107	6.17802	0.690947	7.01168	0.968715	9.70893	0.250141	2.83141	0.301848	3.42122	0.394527	4.47578	0.63777	6.60243	0.731268	7.38785	0.769572	7.75475	0.632674	6.5965
0.21141	2.34977	0.150162	1.59923	0.35076	3.91117	0.552844	6.0871	0.695266	6.91793	0.969074	9.52543	0.253155	2.80333	0.303883	3.36944	0.399893	4.43797	0.638468	6.5621	0.733532	7.26683	0.771626	7.62486	0.633189	6.55405
0.213281	2.32002	0.153684	1.60328	0.357442	3.90044	0.553725	5.98426	0.699059	6.83944	0.969446	9.34898	0.256188	2.77666	0.305927	3.31995	0.405321	4.40245	0.638915	6.5366	0.735736	7.14984	0.773811	7.50118	0.633521	6.52721
0.215195	2.29197	0.157204	1.60714	0.36414	3.89033	0.554758	5.87107	0.702314	6.77478	0.969831	9.17919	0.259243	2.75132	0.30798	3.27263	0.410804	4.36901	0.639559	6.50036	0.737875	7.03661	0.77613	7.38338	0.634	6.48909
0.217155	2.26556	0.160722	1.61083	0.370848	3.88074	0.555815	5.76273	0.705019	6.7228	0.97023	9.01573	0.262319	2.72724	0.310045	3.22736	0.416338	4.33745	0.640261	6.46152	0.739684	6.94081	0.778583	7.27114	0.634523	6.44825
0.219164	2.2407	0.164239	1.61437	0.377563	3.8716	0.556896	5.65894	0.707167	6.68262	0.970644	8.85825	0.265418	2.70436	0.312123	3.18403	0.421916	4.30761	0.641218	6.40961	0.741184	6.86116	0.781171	7.16419	0.635241	6.39369
0.221223	2.21733	0.167757	1.61778	0.384281	3.86285	0.558001	5.55945	0.708752	6.65358	0.971074	8.70645	0.268541	2.6826	0.314216	3.14254	0.427533	4.27933	0.642433	6.34539	0.742396	6.79663	0.783891	7.06219	0.636157	6.32625
0.223334	2.19536	0.171274	1.62106	0.390996	3.85442	0.559131	5.46401	0.709768	6.63521	0.971521	8.56004	0.271687	2.66192	0.316324	3.10281	0.433184	4.25247	0.64391	6.26981	0.743336	6.74644	0.786367	6.97714	0.637278	6.24696
0.225498	2.17473	0.174792	1.62423	0.397707	3.84626	0.560285	5.37239	0.711231	6.60911	0.971987	8.41876	0.274857	2.64224	0.318448	3.06473	0.438864	4.2269	0.645652	6.18393	0.744018	6.70999	0.788552	6.9073	0.638611	6.15694
0.227714	2.15536	0.178312	1.6273	0.404411	3.83834	0.561465	5.2844	0.712826	6.58112	0.972473	8.28236	0.278052	2.62352	0.320591	3.02823	0.444568	4.20251	0.647664	6.08891	0.744449	6.68687	0.79041	6.85132	0.640165	6.05746
0.229983	2.13719	0.181834	1.63028	0.411103	3.8306	0.56267	5.19982	0.715001	6.54369	0.972979	8.15063	0.28127	2.6057	0.322751	2.99323	0.450294	4.1792	0.649692	5.99746	0.745063	6.6539	0.79191	6.80814	0.641743	5.96183
0.232304	2.12014	0.18536	1.63319	0.417781	3.82301	0.563902	5.1185	0.717762	6.49736	0.973508	8.02333	0.284512	2.58873	0.324932	2.95965	0.456035	4.15688	0.651733	5.90939	0.745723	6.61841	0.793029	6.77699	0.643347	5.86985
0.234677	2.10416	0.188888	1.63603	0.424443	3.81554	0.56516	5.04025	0.721115	6.44281	0.97406	7.90027	0.287776	2.57255	0.327133	2.92744	0.46179	4.13545	0.65379	5.82453	0.746607	6.57074	0.793754	6.7573	0.644975	5.78132
0.237101	2.08918	0.192421	1.63881	0.431085	3.80815	0.566446	4.96494	0.72507	6.38077	0.974638	7.78126	0.291063	2.55713	0.329354	2.89652	0.467554	4.11485	0.655862	5.74273	0.747704	6.51141	0.794804	6.72936	0.646628	5.69607
0.239575	2.07514	0.195958	1.64153	0.437704	3.80082	0.567761	4.89242	0.729634	6.31207	0.975242	7.66613	0.294371	2.54242	0.331597	2.86683	0.473324	4.09499	0.657951	5.66381	0.749002	6.44104	0.79596	6.69944	0.648306	5.61393
0.242097	2.06199	0.1995	1.64421	0.444299	3.79352	0.569105	4.82256	0.734224	6.24588	0.975875	7.55471	0.297701	2.52838	0.333864	2.83833	0.479096	4.07582	0.660054	5.58765	0.750485	6.36039	0.797552	6.65948	0.650008	5.53473
0.244667	2.04966	0.203048	1.64685	0.450865	3.78622	0.57048	4.75523	0.738841	6.18208	0.976537	7.44685	0.301049	2.51496	0.336153	2.81095	0.484868	4.05727	0.662175	5.51411	0.752142	6.27027	0.799601	6.61014	0.651734	5.45834
0.247283	2.03811	0.206601	1.64945	0.457399	3.7789	0.571888	4.69034	0.743481	6.12054	0.97723	7.3424	0.304417	2.50212	0.338466	2.78466	0.490636	4.0393	0.664312	5.44307	0.753754	6.18269	0.802126	6.55215	0.653483	5.38461
0.249944	2.02729	0.210161	1.65202	0.463899	3.77153	0.573329	4.62777	0.748146	6.06114	0.977862	7.25405	0.307802	2.48983	0.340803	2.75939	0.496398	4.02184	0.666466	5.37442	0.755327	6.09757	0.805153	6.48638	0.655257	5.31341
0.252647	2.01716	0.213727	1.65456	0.47036	3.76409	0.574806	4.56744	0.752833	6.00378	0.97842	7.18064	0.311203	2.47806	0.343167	2.73513	0.50215	4.00485	0.668637	5.30803	0.756867	6.01483	0.808706	6.41374	0.657054	5.24463
0.255393	2.00766	0.2173	1.65708	0.47678	3.75654	0.576321	4.50925	0.757541	5.94836	0.978897	7.12122	0.314618	2.46676	0.345557	2.71181	0.507891	3.98829	0.670825	5.24382	0.758378	5.93441	0.812339	6.34395	0.658874	5.17815
0.258178	1.99876	0.22088	1.65957	0.483152	3.74886	0.577878	4.45314	0.762269	5.89477	0.979284	7.07504	0.318047	2.4559	0.347974	2.68942	0.513617	3.97213	0.673032	5.18168	0.759866	5.85624	0.816046	6.27682	0.660718	5.11387
0.261002	1.99043	0.224468	1.66206	0.489474	3.74102	0.579478	4.39904	0.767017	5.84292	0.979574	7.04153	0.321487	2.44546	0.350419	2.6679	0.519326	3.95631	0.675256	5.12152	0.761334	5.78025	0.81982	6.21219	0.662584	5.05169
0.263864	1.98261	0.228063	1.66452	0.49574	3.73299	0.581128	4.34688	0.771783	5.79275	0.979762	7.02027	0.324937	2.43539	0.352894	2.64724	0.525016	3.94081	0.677499	5.06326	0.762787	5.70637	0.823656	6.14993	0.664473	4.9915
0.266761	1.97529	0.231666	1.66697	0.501943	3.72473	0.58283	4.29662	0.776567	5.74415	0.980037	6.98998	0.328395	2.42567	0.3554	2.62741	0.530683	3.9256	0.67976	5.00683	0.764229	5.63454	0.827551	6.0899	0.666385	4.93323
0.269692	1.96843	0.235277	1.66941	0.508078	3.7162	0.584591	4.24822	0.781367	5.69706	0.980339	6.95741	0.331857	2.41627	0.357938	2.60838	0.536325	3.91064	0.682039	4.95213	0.765662	5.56469	0.831499	6.03195	0.668319	4.87679
0.272655	1.96199	0.238896	1.67184	0.514135	3.70736	0.586417	4.20165	0.786182	5.65141	0.980759	6.91368	0.335323	2.40715	0.360509	2.59013	0.541941	3.89591	0.684338	4.8991	0.76709	5.49677	0.835497	5.97599	0.670275	4.8221
0.275651	1.95596	0.242523	1.67426	0.520106	3.69816	0.588317	4.15689	0.791012	5.60713	0.981303	6.8593	0.33879	2.3983	0.363116	2.57263	0.547527	3.88138	0.686656	4.84768	0.768515	5.43071	0.83954	5.92189	0.672253	4.76909
0.278677	1.95031	0.246158	1.67667	0.525981	3.68853	0.5903	4.11394	0.795855	5.56416	0.981983	6.7949	0.342255	2.38967	0.36576	2.55587	0.553082	3.86703	0.688993	4.79779	0.769939	5.36646	0.843626	5.86956	0.674253	4.71768
0.281731	1.94501	0.249802	1.67907	0.531748	3.67841	0.592378	4.07279	0.80071	5.52243	0.98281	6.72119	0.345715	2.38124	0.368443	2.53984	0.558603	3.85284	0.691349	4.74938	0.771365	5.30394	0.84775	5.81891	0.676274	4.66781
0.284813	1.94004	0.253453	1.68146	0.537392	3.66773	0.594564	4.03347	0.805577	5.4819	0.9838	6.63898	0.349167	2.37299	0.371168	2.52451	0.564087	3.83878	0.693724	4.70238	0.772795	5.24311	0.851911	5.76985	0.678317	4.61942
0.287922	1.93537	0.257114	1.68385	0.542897	3.65639	0.596874	3.996	0.810454	5.4425	0.984836	6.55922	0.352609	2.36488	0.373937	2.50989	0.569534	3.82483	0.696119	4.65675	0.77423	5.18392	0.856104	5.72229	0.680381	4.57245
0.291057	1.931	0.260782	1.68623	0.548245	3.6443	0.599325	3.96044	0.81534	5.40419	0.98592	6.48182	0.356037	2.35689	0.376751	2.49594	0.57494	3.81097	0.698533	4.61243	0.775673	5.1263	0.860328	5.67617	0.682467	4.52684
0.294215	1.9269	0.264458	1.6886	0.553416	3.63137	0.601935	3.92683	0.820235	5.36691	0.987052	6.40671	0.359448	2.34899	0.379614	2.48268	0.580304	3.7972	0.700967	4.56936	0.777123	5.07022	0.864581	5.6314	0.684572	4.48253
0.297398	1.92306	0.268143	1.69097	0.55839	3.61748	0.604724	3.89523	0.825136	5.33062	0.988234	6.33381	0.362839	2.34117	0.382528	2.47007	0.585624	3.78349	0.703419	4.5275	0.778584	5.01561	0.868859	5.58793	0.686699	4.43948
0.300603	1.91946	0.271836	1.69333	0.563145	3.60254	0.607711	3.86566	0.830044	5.29528	0.989467	6.26304	0.366207	2.33339	0.385496	2.45813	0.590897	3.76982	0.705891	4.48681	0.780055	4.96243	0.873161	5.5457	0.688846	4.39764
0.30383	1.91609	0.275537	1.69568	0.567664	3.58649	0.61091	3.83816	0.834956	5.26084	0.990754	6.19434	0.369549	2.32564	0.388519	2.44682	0.596122	3.75619	0.708381	4.44724	0.781538	4.91064	0.877484	5.50463	0.691013	4.35696
0.307078	1.91293	0.279245	1.69802	0.571933	3.56926	0.614329	3.8127	0.839873	5.22727	0.992095	6.12764	0.372864	2.31791	0.391598	2.43615	0.601297	3.74258	0.71089	4.40874	0.783035	4.8602	0.881826	5.46469	0.6932	4.3174
0.310346	1.90997	0.282962	1.70036	0.575946	3.55087	0.617972	3.78921	0.844792	5.19452	0.993491	6.06287	0.376148	2.31018	0.394736	2.42609	0.606421	3.72898	0.713417	4.37128	0.784546	4.81105	0.886187	5.42581	0.695407	4.27891
0.313634	1.9072	0.286686	1.70268	0.579703	3.53136	0.621831	3.7676	0.849713	5.16256	0.994944	5.99997	0.379402	2.30245	0.397932	2.41662	0.61149	3.71537	0.715961	4.33482	0.786072	4.76316	0.890563	5.38795	0.697634	4.24146
0.316941	1.90461	0.290417	1.705	0.583214	3.51083	0.62589	3.74769	0.854635	5.13136	0.996453	5.93888	0.382625	2.29472	0.401187	2.40773	0.616505	3.70176	0.718523	4.29931	0.787614	4.71649	0.894953	5.35106	0.69988	4.20501
0.320266	1.90218	0.294156	1.7073	0.586497	3.48943	0.630129	3.72931	0.859555	5.10088	0.99802	5.87954	0.385816	2.28698	0.404499	2.39938	0.621463	3.68813	0.721102	4.26472	0.789173	4.671	0.899356	5.3151	0.702146	4.16953
0.323609	1.89992	0.297901	1.70959	0.589574	3.4673	0.634522	3.71225	0.864473	5.07108	0.999646	5.8219	0.388978	2.27924	0.407867	2.39156	0.626363	3.67447	0.723696	4.23103	0.79075	4.62666	0.903769	5.28002	0.70443	4.13497
0.326968	1.89781	0.301654	1.71188	0.59247	3.44463	0.639042	3.69631	0.869388	5.04195	1.00133	5.76589	0.392111	2.27151	0.41129	2.38423	0.631205	3.66078	0.726306	4.19818	0.792345	4.58344	0.908192	5.2458	0.706734	4.10131
0.330345	1.89584	0.305414	1.71414	0.59521	3.42157	0.643664	3.68131	0.874298	5.01344			0.395217	2.2638	0.414764	2.37736	0.635986	3.64705	0.72893	4.16615	0.793958	4.54128	0.912624	5.21239	0.709056	4.06851
0.333737	1.89401	0.309179	1.7164	0.597818	3.39828	0.648362	3.66707	0.879202	4.98553			0.398298	2.25612	0.418287	2.37092	0.640705	3.63328	0.731568	4.13491	0.795591	4.50018	0.917062	5.17975	0.711397	4.03655
0.337145	1.8923	0.312952	1.71864	0.600315	3.37487	0.653115	3.65345	0.884099	4.95819			0.401358	2.24849	0.421856	2.36487	0.645363	3.61947	0.734218	4.10442	0.797245	4.46008	0.921505	5.14786	0.713756	4.00539
0.340569	1.89072	0.31673	1.72087	0.602721	3.35147	0.657903	3.64033	0.888986	4.9314			0.404399	2.24092	0.425468	2.3592	0.649958	3.60561	0.736879	4.07465	0.798919	4.42098	0.925953	5.11669	0.716133	3.97501
0.344007	1.88925	0.320514	1.72308	0.605052	3.32816	0.662712	3.62759	0.893863	4.90512			0.407423	2.23342	0.42912	2.35387	0.654491	3.5917	0.739551	4.04558	0.800614	4.38282	0.930405	5.0862	0.718529	3.94539
0.34746	1.88789	0.324304	1.72528	0.607321	3.30501	0.667525	3.61516	0.898728	4.87934			0.410433	2.226	0.432809	2.34885	0.658959	3.57774	0.742231	4.01718	0.802331	4.34559	0.934858	5.05637	0.720942	3.91649
0.350927	1.88664	0.3281	1.72746	0.609539	3.28208	0.672333	3.60295	0.90358	4.85403			0.413431	2.21868	0.436531	2.34412	0.663364	3.56373	0.74492	3.98941	0.804069	4.30927	0.939313	5.02718	0.723373	3.88829
0.354408	1.88548	0.3319	1.72962	0.611717	3.25941	0.677125	3.59092	0.908416	4.82916			0.41642	2.21146	0.440284	2.33965	0.667705	3.54968	0.747614	3.96225	0.80583	4.27381	0.943769	4.99859	0.725821	3.86078
0.357902	1.88443	0.335706	1.73176	0.613861	3.23703	0.681893	3.579	0.913235	4.80472			0.419401	2.20435	0.444066	2.33542	0.671982	3.53558	0.750314	3.93568	0.807613	4.2392	0.948224	4.97059	0.728287	3.83393
0.36141	1.88346	0.339516	1.73389	0.615979	3.21497	0.68663	3.56717	0.918036	4.78068			0.422377	2.19736	0.447875	2.33142	0.676197	3.52144	0.753017	3.90966	0.809419	4.20542	0.952679	4.94316	0.73077	3.80771
0.364931	1.88258	0.34333	1.73599	0.618076	3.19325	0.69133	3.55538	0.922816	4.75703			0.42535	2.19049	0.451707	2.32763	0.680348	3.50727	0.755723	3.88418	0.811248	4.17243	0.957133	4.91627	0.733269	3.78211
0.368464	1.88178	0.347149	1.73808	0.620156	3.17188	0.695987	3.54362	0.927574	4.73373			0.428321	2.18375	0.455562	2.32402	0.684438	3.49306	0.758429	3.85922	0.813099	4.14022	0.961585	4.88991	0.735786	3.75711
0.37201	1.88106	0.350971	1.74014	0.622223	3.15086	0.700599	3.53186	0.932307	4.71077			0.431291	2.17713	0.459438	2.32059	0.688466	3.47882	0.761134	3.83474	0.814974	4.10876	0.966035	4.86406	0.738319	3.73269
0.375568	1.88042	0.354798	1.74218	0.624281	3.13022	0.705161	3.52007	0.937015	4.68813			0.434261	2.17065	0.463332	2.31732	0.692434	3.46456	0.763838	3.81073	0.816871	4.07803	0.970483	4.83871	0.740868	3.70883
0.379139	1.87985	0.358627	1.7442	0.626331	3.10994	0.70967	3.50826	0.941694	4.66579			0.437234	2.16431	0.467244	2.3142	0.696343	3.45028	0.766538	3.78718	0.81879	4.04801	0.974929	4.81384	0.743434	3.68551
0.382721	1.87935	0.36246	1.7462	0.628377	3.09002	0.714124	3.4964	0.946344	4.64373			0.440209	2.1581	0.471172	2.31122	0.700193	3.43599	0.769234	3.76405	0.820732	4.01867	0.979373	4.78943	0.746016	3.66273
0.386315	1.87891	0.366296	1.74817	0.63042	3.07048	0.71852	3.48449	0.95096	4.62193			0.443188	2.15203	0.475115	2.30837	0.703986	3.42169	0.771925	3.74133	0.822695	3.98999	0.983814	4.76547	0.748614	3.64045
0.38992	1.87854	0.370134	1.75012	0.632462	3.0513	0.722859	3.47252	0.955541	4.60037			0.446171	2.14609	0.479073	2.30564	0.707724	3.4074	0.774609	3.71901	0.82468	3.96195	0.988253	4.74196	0.751227	3.61867
0.393537	1.87823	0.373974	1.75204	0.634504	3.03247	0.727137	3.46049	0.960085	4.57904			0.44916	2.14028	0.483043	2.30303	0.711408	3.39312	0.777285	3.69707	0.826685	3.93454	0.992691	4.71887	0.753856	3.59737
0.397165	1.87798	0.377817	1.75394	0.636548	3.01401	0.731354	3.4484	0.964589	4.55792			0.452154	2.13462	0.487026	2.30052	0.715038	3.37885	0.779954	3.6755	0.828711	3.90773	0.997126	4.69621	0.756501	3.57654
0.400804	1.87778	0.381661	1.75581	0.638593	2.99589	0.735509	3.43624	0.969051	4.53698			0.455154	2.12908	0.49102	2.29811	0.718618	3.3646	0.782614	3.65429	0.830756	3.8815	1.00156	4.67395	0.759161	3.55616
0.404454	1.87764	0.385507	1.75765	0.640642	2.97812	0.739602	3.42401	0.973466	4.51621			0.458161	2.12368	0.495025	2.29579	0.722148	3.35039	0.785266	3.63342	0.83282	3.85583			0.761836	3.53623
0.408115	1.87755	0.389354	1.75947	0.642696	2.96069	0.743633	3.41171	0.977833	4.4956			0.461176	2.11841	0.49904	2.29357	0.725629	3.3362	0.787908	3.61288	0.834901	3.83071			0.764526	3.51672
0.411786	1.87751	0.393202	1.76126	0.644753	2.94359	0.747601	3.39935	0.982148	4.47511			0.464198	2.11326	0.503064	2.29142	0.729064	3.32206	0.790542	3.59267	0.836999	3.80611			0.767231	3.49763
0.415467	1.87752	0.39705	1.76302	0.646816	2.92682	0.751507	3.38693	0.986407	4.45473			0.467228	2.10825	0.507098	2.28936	0.732454	3.30796	0.793166	3.57277	0.839113	3.78202			0.76995	3.47895
0.419158	1.87757	0.400899	1.76475	0.648885	2.91037	0.755351	3.37445	0.990607	4.43445			0.470267	2.10336	0.51114	2.28737	0.7358	3.29392	0.795782	3.55319	0.841243	3.75841			0.772684	3.46065
0.42286	1.87767	0.404748	1.76645	0.650959	2.89424	0.759134	3.36191	0.994744	4.41424			0.473314	2.09859	0.51519	2.28545	0.739104	3.27993	0.798389	3.5339	0.843386	3.73528			0.775432	3.44274
0.426572	1.87781	0.408596	1.76812	0.653041	2.87841	0.762857	3.34932	0.998814	4.39409			0.47637	2.09394	0.519248	2.28359	0.742367	3.26601	0.800988	3.51492	0.845542	3.71261			0.778195	3.4252
0.430293	1.87799	0.412444	1.76977	0.655129	2.86288	0.766519	3.33669	1.00281	4.37396			0.479436	2.08942	0.523313	2.2818	0.74559	3.25215	0.803581	3.49622	0.84771	3.69037			0.780971	3.40802
0.434025	1.87821	0.416292	1.77138	0.657224	2.84765	0.770123	3.32402					0.482511	2.08501	0.527384	2.28007	0.748776	3.23836	0.806167	3.47782	0.849889	3.66855			0.783761	3.39119
0.437765	1.87846	0.420137	1.77296	0.659326	2.8327	0.773669	3.31131					0.485596	2.08072	0.531463	2.2784	0.751925	3.22464	0.808748	3.4597	0.852078	3.64715			0.786566	3.37471
0.441516	1.87875	0.423982	1.7745	0.661436	2.81804	0.777159	3.29858					0.488691	2.07654	0.535548	2.27678	0.755038	3.211	0.811324	3.44186	0.854277	3.62614			0.789383	3.35856
0.445275	1.87908	0.427825	1.77602	0.663554	2.80365	0.780593	3.28582					0.491796	2.07248	0.539638	2.27521	0.758117	3.19745	0.813897	3.42431	0.856483	3.60551			0.792214	3.34273
0.449044	1.87944	0.431666	1.7775	0.665679	2.78953	0.783974	3.27305					0.494911	2.06852	0.543734	2.27369	0.761163	3.18397	0.816468	3.40703	0.858696	3.58524			0.795059	3.32721
0.452821	1.87983	0.435504	1.77895	0.667813	2.77567	0.787302	3.26027					0.498038	2.06467	0.547836	2.27222	0.764176	3.17059	0.819037	3.39003	0.860916	3.56534			0.797916	3.31201
0.456607	1.88025	0.43934	1.78037	0.669954	2.76207	0.79058	3.24748					0.501174	2.06093	0.551943	2.2708	0.767159	3.15729	0.821606	3.37329	0.863142	3.54577			0.800787	3.2971
0.460402	1.8807	0.443173	1.78175	0.672104	2.74872	0.793808	3.2347					0.504322	2.0573	0.556055	2.26941	0.770112	3.14408	0.824176	3.35684	0.865373	3.52655			0.80367	3.28248
0.464206	1.88117	0.447003	1.78309	0.674262	2.73562	0.796988	3.22193					0.507481	2.05376	0.560171	2.26807	0.773035	3.13096	0.826748	3.34064	0.867608	3.50764			0.806567	3.26815
0.468018	1.88168	0.450829	1.78441	0.676429	2.72276	0.800122	3.20917					0.510651	2.05033	0.564293	2.26677	0.775931	3.11794	0.829324	3.32472	0.869847	3.48905			0.809476	3.2541
0.471838	1.8822	0.454651	1.78568	0.678603	2.71013	0.803212	3.19644					0.513833	2.047	0.568418	2.26551	0.778798	3.10501	0.831904	3.30906	0.87209	3.47076			0.812397	3.24031
0.475667	1.88276	0.45847	1.78692	0.680787	2.69774	0.806259	3.18373					0.517026	2.04376	0.572548	2.26428	0.78164	3.09217	0.834489	3.29367	0.874335	3.45276			0.815331	3.22679
0.479503	1.88333	0.462284	1.78813	0.682978	2.68557	0.809265	3.17106					0.520232	2.04062	0.576683	2.26309	0.784456	3.07944	0.83708	3.27853	0.876584	3.43505			0.818276	3.21352
0.483347	1.88393	0.466093	1.7893	0.685178	2.67361	0.812232	3.15843					0.523449	2.03758	0.580821	2.26193	0.787247	3.0668	0.839678	3.26366	0.878835	3.41763			0.821234	3.2005
0.487199	1.88455	0.469897	1.79043	0.687387	2.66187	0.815161	3.14584					0.526678	2.03462	0.584962	2.2608	0.790015	3.05426	0.842284	3.24904	0.881088	3.40047			0.824204	3.18773
0.491059	1.88518	0.473697	1.79153	0.689604	2.65034	0.818054	3.13331					0.52992	2.03176	0.589108	2.25971	0.792759	3.04182	0.844899	3.23467	0.883344	3.38358			0.827186	3.17519
0.494926	1.88584	0.47749	1.79259	0.69183	2.63902	0.820912	3.12083					0.533174	2.02899	0.593257	2.25864	0.79548	3.02948	0.847524	3.22055	0.885602	3.36696			0.830179	3.16289
0.4988	1.88651	0.481278	1.79361	0.694064	2.6279	0.823738	3.10841					0.53644	2.02631	0.597409	2.25761	0.79818	3.01724	0.850158	3.20668	0.887861	3.35058			0.833184	3.15081
0.502681	1.8872	0.48506	1.7946	0.696307	2.61697	0.826532	3.09606					0.53972	2.02372	0.601565	2.2566	0.800859	3.00511	0.852804	3.19305	0.890124	3.33445			0.836201	3.13895
0.506569	1.88791	0.488835	1.79555	0.698559	2.60623	0.829298	3.08378					0.543012	2.02121	0.605724	2.25561	0.803518	2.99307	0.85546	3.17967	0.892388	3.31857			0.839228	3.12731
0.510464	1.88863	0.492604	1.79646	0.700818	2.59568	0.832035	3.07157					0.546317	2.01878	0.609885	2.25466	0.806157	2.98114	0.858128	3.16652	0.894655	3.30293			0.842267	3.11587
0.514365	1.88936	0.496366	1.79733	0.703087	2.58532	0.834745	3.05944					0.549635	2.01644	0.61405	2.25373	0.808778	2.96931	0.860808	3.1536	0.896925	3.28752			0.845317	3.10465
0.518273	1.89011	0.500121	1.79817	0.705364	2.57513	0.837431	3.04739					0.552966	2.01418	0.618218	2.25282	0.811381	2.95758	0.8635	3.14091	0.899197	3.27234			0.848378	3.09362
0.522188	1.89087	0.503869	1.79897	0.707649	2.56512	0.840093	3.03543					0.556311	2.012	0.622389	2.25193	0.813967	2.94596	0.866204	3.12844	0.901473	3.25739			0.85145	3.08279
0.526108	1.89164	0.50761	1.79973	0.709943	2.55528	0.842733	3.02356					0.55967	2.0099	0.626562	2.25107	0.816536	2.93445	0.86892	3.11619	0.903753	3.24267			0.854532	3.07215
0.530035	1.89242	0.511342	1.80045	0.712245	2.54561	0.845353	3.01178					0.563041	2.00787	0.630738	2.25023	0.81909	2.92303	0.871648	3.10416	0.906037	3.22816			0.857625	3.06169
0.533967	1.89322	0.515067	1.80113	0.714556	2.5361	0.847954	3.0001					0.566427	2.00593	0.634916	2.2494	0.821628	2.91173	0.874389	3.09233	0.908325	3.21387			0.860728	3.05142
0.537906	1.89402	0.518783	1.80178	0.716875	2.52676	0.850536	2.98851					0.569826	2.00405	0.639097	2.2486	0.824153	2.90053	0.877142	3.08071	0.910618	3.19979			0.863842	3.04133
0.541849	1.89483	0.522492	1.80239	0.719202	2.51757	0.853101	2.97702					0.573239	2.00226	0.643281	2.24782	0.826664	2.88944	0.879906	3.0693	0.912916	3.18593			0.866967	3.03141
0.545799	1.89565	0.526191	1.80297	0.721538	2.50853	0.855651	2.96564					0.576666	2.00053	0.647467	2.24706	0.829163	2.87845	0.882682	3.05807	0.915221	3.17227			0.870101	3.02166
0.549753	1.89647	0.529883	1.8035	0.723881	2.49965	0.858186	2.95436					0.580106	1.99888	0.651654	2.24631	0.83165	2.86758	0.885469	3.04704	0.917531	3.15882			0.873245	3.01208
0.553713	1.8973	0.533566	1.804	0.726234	2.49092	0.860709	2.94318					0.583561	1.99729	0.655844	2.24559	0.834125	2.85681	0.888267	3.03619	0.919849	3.14558			0.876399	3.00266
0.557678	1.89814	0.537239	1.80447	0.728594	2.48232	0.863219	2.93211					0.58703	1.99578	0.660037	2.24488	0.836591	2.84614	0.891075	3.02552	0.922174	3.13253			0.879563	2.9934
0.561647	1.89898	0.540904	1.80489	0.730963	2.47388	0.865718	2.92116					0.590512	1.99433	0.664231	2.24418	0.839046	2.83559	0.893893	3.01502	0.924508	3.11969			0.882737	2.9843
0.565621	1.89983	0.54456	1.80529	0.733339	2.46556	0.868207	2.91031					0.594009	1.99295	0.668427	2.2435	0.841493	2.82515	0.89672	3.00469	0.926851	3.10705			0.885921	2.97535
0.5696	1.90068	0.548207	1.80564	0.735724	2.45739	0.870687	2.89957					0.59752	1.99163	0.672626	2.24284	0.843931	2.81481	0.899555	2.99453	0.929203	3.0946			0.889114	2.96654
0.573583	1.90154	0.551844	1.80597	0.738117	2.44935	0.873159	2.88895					0.601044	1.99037	0.676826	2.24219	0.846362	2.80458	0.902398	2.98452	0.931566	3.08235			0.892316	2.95789
0.577571	1.9024	0.555473	1.80626	0.740518	2.44144	0.875623	2.87844					0.604583	1.98918	0.681028	2.24156	0.848786	2.79447	0.905248	2.97467	0.93394	3.0703			0.895528	2.94937
0.581563	1.90326	0.559092	1.80651	0.742927	2.43365	0.878081	2.86804					0.608136	1.98805	0.685232	2.24094	0.851204	2.78446	0.908104	2.96496	0.936326	3.05843			0.898749	2.94099
0.585558	1.90412	0.562702	1.80673	0.745344	2.426	0.880534	2.85775					0.611702	1.98698	0.689438	2.24033	0.853616	2.77456	0.910966	2.95539	0.938725	3.04676			0.901979	2.93275
0.589558	1.90499	0.566303	1.80693	0.747769	2.41846	0.882981	2.84758					0.615282	1.98596	0.693645	2.23974	0.856023	2.76477	0.913832	2.94595	0.941137	3.03529			0.905217	2.92465
0.593562	1.90585	0.569894	1.80708	0.750202	2.41105	0.885425	2.83753					0.618876	1.98501	0.697854	2.23916	0.858426	2.75509	0.916702	2.93665	0.943564	3.024			0.908465	2.91667
0.597569	1.90672	0.573477	1.80721	0.752643	2.40375	0.887865	2.82759					0.622483	1.9841	0.702064	2.23859	0.860824	2.74552	0.919574	2.92747	0.946007	3.0129			0.911722	2.90883
0.601579	1.90759	0.57705	1.80731	0.755091	2.39657	0.890303	2.81777					0.626104	1.98325	0.706277	2.23804	0.86322	2.73606	0.922447	2.91841	0.948466	3.00199			0.914988	2.9011
0.605593	1.90846	0.580614	1.80738	0.757548	2.3895	0.892738	2.80806					0.629738	1.98246	0.710491	2.2375	0.865613	2.72671	0.925322	2.90946	0.950942	2.99128			0.918262	2.8935
0.60961	1.90932	0.584169	1.80742	0.760012	2.38254	0.895173	2.79846					0.633385	1.98171	0.714706	2.23696	0.868004	2.71746	0.928195	2.90062	0.953437	2.98075			0.921544	2.88602
0.61363	1.91019	0.587716	1.80743	0.762484	2.3757	0.897606	2.78898					0.637045	1.98102	0.718923	2.23644	0.870394	2.70832	0.931067	2.89189	0.955952	2.97041			0.924835	2.87866
0.617653	1.91105	0.591254	1.80742	0.764964	2.36896	0.900039	2.77961					0.640718	1.98037	0.723141	2.23593	0.872782	2.69929	0.933937	2.88325	0.958486	2.96026			0.928135	2.87141
0.621679	1.91191	0.594783	1.80738	0.767451	2.36232	0.902473	2.77036					0.644404	1.97977	0.727361	2.23543	0.875169	2.69037	0.936802	2.8747	0.961042	2.95029			0.931443	2.86428
0.625708	1.91277	0.598303	1.80731	0.769946	2.35579	0.904908	2.76122					0.648102	1.97921	0.731582	2.23494	0.877557	2.68155	0.939663	2.86624	0.963621	2.94052			0.934758	2.85726
0.629739	1.91363	0.601815	1.80722	0.772449	2.34936	0.907343	2.75219					0.651812	1.9787	0.735804	2.23446	0.879944	2.67284	0.942517	2.85786	0.966223	2.93093			0.938082	2.85034
0.633773	1.91449	0.605319	1.80711	0.774959	2.34303	0.909781	2.74328					0.655535	1.97823	0.740028	2.23399	0.882332	2.66423	0.945365	2.84956	0.96885	2.92153			0.941414	2.84353
0.637809	1.91534	0.608815	1.80697	0.777477	2.33679	0.912221	2.73448					0.659269	1.9778	0.744253	2.23353	0.884721	2.65573	0.948205	2.84133	0.971501	2.91231			0.944754	2.83683
0.641848	1.91619	0.612303	1.80681	0.780003	2.33065	0.914664	2.72579					0.663015	1.97741	0.748479	2.23308	0.887112	2.64733	0.951036	2.83318	0.974178	2.90328			0.948102	2.83022
0.645888	1.91704	0.615783	1.80663	0.782535	2.32461	0.917109	2.7172					0.666772	1.97706	0.752706	2.23264	0.889504	2.63904	0.953857	2.82509	0.976883	2.89443			0.951458	2.82372
0.649931	1.91788	0.619256	1.80643	0.785076	2.31866	0.919559	2.70873					0.670541	1.97675	0.756935	2.23221	0.891898	2.63084	0.956669	2.81706	0.979614	2.88577			0.954821	2.81731
0.653975	1.91872	0.622721	1.80622	0.787624	2.31279	0.922012	2.70037					0.67432	1.97647	0.761165	2.23178	0.894295	2.62275	0.959469	2.8091	0.982373	2.87728			0.958192	2.811
0.658022	1.91955	0.626179	1.80598	0.790179	2.30702	0.924469	2.69211					0.67811	1.97622	0.765396	2.23136	0.896694	2.61475	0.962258	2.80119	0.985161	2.86898			0.96157	2.80479
0.66207	1.92038	0.62963	1.80573	0.792742	2.30133	0.92693	2.68396					0.68191	1.97601	0.769628	2.23095	0.899096	2.60686	0.965035	2.79334	0.987977	2.86085			0.964956	2.79866
0.666119	1.9212	0.633074	1.80545	0.795313	2.29573	0.929396	2.67591					0.685721	1.97583	0.773861	2.23055	0.901501	2.59906	0.967801	2.78554	0.990821	2.85289			0.968349	2.79263
0.67017	1.92202	0.636511	1.80517	0.79789	2.29022	0.931868	2.66797					0.689541	1.97568	0.778095	2.23016	0.90391	2.59137	0.970554	2.77779	0.993694	2.84511			0.971749	2.78668
0.674222	1.92284	0.639942	1.80487	0.800475	2.28478	0.934345	2.66014					0.693371	1.97556	0.782331	2.22977	0.906323	2.58377	0.973296	2.7701	0.996595	2.83749			0.975157	2.78083
0.678276	1.92364	0.643367	1.80455	0.803068	2.27943	0.936827	2.65241					0.69721	1.97547	0.786567	2.22939	0.908739	2.57626	0.976026	2.76246	0.999525	2.83004			0.978572	2.77506
0.682331	1.92445	0.646786	1.80422	0.805667	2.27416	0.939315	2.64477					0.701059	1.97541	0.790804	2.22902	0.91116	2.56885	0.978744	2.75487	1.00248	2.82275			0.981994	2.76937
0.686386	1.92524	0.650198	1.80388	0.808274	2.26897	0.941809	2.63724					0.704916	1.97537	0.795043	2.22865	0.913585	2.56153	0.981451	2.74734					0.985423	2.76376
0.690443	1.92603	0.653605	1.80352	0.810889	2.26385	0.944309	2.62981					0.708782	1.97535	0.799282	2.2283	0.916014	2.55431	0.984148	2.73986					0.988858	2.75824
0.694501	1.92682	0.657007	1.80316	0.813511	2.25881	0.946816	2.62248					0.712657	1.97536	0.803522	2.22794	0.918448	2.54717	0.986834	2.73243					0.992301	2.75279
0.698559	1.92759	0.660403	1.80278	0.81614	2.25385	0.94933	2.61524					0.716539	1.97539	0.807763	2.2276	0.920887	2.54013	0.989511	2.72505					0.99575	2.74742
0.702617	1.92837	0.663794	1.8024	0.818776	2.24895	0.95185	2.60811					0.720429	1.97544	0.812006	2.22726	0.923331	2.53318	0.99218	2.71773					0.999206	2.74213
0.706677	1.92913	0.667181	1.802	0.821419	2.24413	0.954377	2.60106					0.724327	1.97551	0.816248	2.22692	0.92578	2.52631	0.99484	2.71047					1.00267	2.73691
0.710736	1.92989	0.670562	1.8016	0.82407	2.23938	0.956912	2.59411					0.728233	1.9756	0.820492	2.2266	0.928235	2.51954	0.997494	2.70326						
0.714796	1.93064	0.673939	1.80119	0.826729	2.23471	0.959453	2.58726					0.732145	1.97571	0.824737	2.22628	0.930695	2.51284	1.00014	2.69611						
0.718856	1.93138	0.677311	1.80077	0.829394	2.2301	0.962002	2.58049					0.736064	1.97584	0.828983	2.22596	0.93316	2.50624								
0.722917	1.93211	0.68068	1.80034	0.832067	2.22556	0.964559	2.57382					0.739991	1.97598	0.833229	2.22565	0.935631	2.49972								
0.726977	1.93284	0.684044	1.79991	0.834747	2.22108	0.967123	2.56723					0.743923	1.97614	0.837476	2.22534	0.938107	2.49328								
0.731037	1.93356	0.687404	1.79947	0.837434	2.21667	0.969695	2.56074					0.747862	1.97631	0.841724	2.22504	0.94059	2.48692								
0.735097	1.93427	0.69076	1.79902	0.840129	2.21233	0.972274	2.55433					0.751807	1.9765	0.845973	2.22475	0.943078	2.48064								
0.739156	1.93497	0.694113	1.79858	0.842831	2.20804	0.974862	2.54801					0.755757	1.9767	0.850222	2.22446	0.945572	2.47445								
0.743215	1.93567	0.697462	1.79812	0.84554	2.20383	0.977457	2.54177					0.759714	1.97692	0.854472	2.22417	0.948072	2.46833								
0.747273	1.93635	0.700808	1.79767	0.848257	2.19967	0.980061	2.53562					0.763675	1.97714	0.858723	2.22389	0.950579	2.46229								
0.751331	1.93703	0.704151	1.79721	0.85098	2.19558	0.982673	2.52955					0.767642	1.97738	0.862975	2.22362	0.953091	2.45633								
0.755388	1.9377	0.707491	1.79674	0.853712	2.19154	0.985293	2.52356					0.771614	1.97763	0.867227	2.22335	0.955609	2.45044								
0.759443	1.93836	0.710828	1.79628	0.85645	2.18756	0.987921	2.51765					0.775591	1.97788	0.87148	2.22308	0.958134	2.44463								
0.763499	1.93901	0.714162	1.79581	0.859197	2.18365	0.990557	2.51183					0.779572	1.97815	0.875734	2.22282	0.960664	2.43889								
0.767552	1.93965	0.717494	1.79534	0.86195	2.17979	0.993202	2.50608					0.783558	1.97842	0.879989	2.22256	0.963201	2.43322								
0.771605	1.94028	0.720823	1.79486	0.864711	2.17599	0.995855	2.50041					0.787549	1.97871	0.884244	2.22231	0.965745	2.42763								
0.775656	1.9409	0.724149	1.79439	0.86748	2.17224	0.998516	2.49481					0.791543	1.979	0.888499	2.22206	0.968294	2.4221								
0.779705	1.94151	0.727473	1.79391	0.870256	2.16855	1.00119	2.48929					0.795542	1.9793	0.892756	2.22181	0.97085	2.41665								
0.783753	1.94211	0.730795	1.79344	0.87304	2.16491							0.799544	1.9796	0.897013	2.22157	0.973412	2.41126								
0.787799	1.9427	0.734115	1.79296	0.875832	2.16133							0.80355	1.97991	0.90127	2.22133	0.97598	2.40594								
0.791843	1.94328	0.737433	1.79249	0.878631	2.1578							0.807559	1.98023	0.905529	2.2211	0.978555	2.40069								
0.795885	1.94385	0.740749	1.79201	0.881438	2.15433							0.811572	1.98055	0.909787	2.22087	0.981135	2.39551								
0.799925	1.94441	0.744064	1.79153	0.884253	2.1509							0.815588	1.98088	0.914046	2.22064	0.983722	2.39038								
0.803963	1.94496	0.747376	1.79106	0.887076	2.14753							0.819607	1.98121	0.918306	2.22042	0.986316	2.38533								
0.807998	1.9455	0.750687	1.79058	0.889907	2.14421							0.823629	1.98154	0.922567	2.2202	0.988915	2.38033								
0.81203	1.94602	0.753997	1.79011	0.892746	2.14094							0.827654	1.98188	0.926828	2.21998	0.991521	2.3754								
0.81606	1.94654	0.757305	1.78963	0.895593	2.13772							0.831682	1.98222	0.931089	2.21977	0.994133	2.37052								
0.820087	1.94704	0.760611	1.78916	0.898448	2.13455							0.835713	1.98257	0.935351	2.21956	0.996752	2.36571								
0.82411	1.94753	0.763917	1.78869	0.901312	2.13143							0.839745	1.98291	0.939614	2.21935	0.999376	2.36096								
0.82813	1.94801	0.767221	1.78822	0.904184	2.12836							0.843781	1.98326	0.943877	2.21915	1.00201	2.35626								
0.832147	1.94847	0.770524	1.78775	0.907065	2.12533							0.847818	1.98362	0.948141	2.21894										
0.83616	1.94893	0.773826	1.78728	0.909954	2.12236							0.851858	1.98397	0.952405	2.21875										
0.840169	1.94937	0.777126	1.78682	0.912853	2.11943							0.8559	1.98433	0.956669	2.21855										
0.844174	1.94979	0.780427	1.78636	0.91576	2.11655							0.859943	1.98468	0.960934	2.21836										
0.848175	1.9502	0.783726	1.7859	0.918676	2.11371							0.863989	1.98504	0.9652	2.21817										
0.852171	1.9506	0.787024	1.78544	0.921601	2.11092							0.868036	1.9854	0.969466	2.21798										
0.856163	1.95099	0.790321	1.78498	0.924536	2.10818							0.872085	1.98576	0.973732	2.2178										
0.86015	1.95136	0.793618	1.78453	0.92748	2.10549							0.876135	1.98612	0.977999	2.21762										
0.864131	1.95171	0.796914	1.78408	0.930434	2.10284							0.880188	1.98648	0.982266	2.21744										
0.868107	1.95205	0.800209	1.78363	0.933398	2.10023							0.884241	1.98684	0.986534	2.21727										
0.872078	1.95237	0.803503	1.78318	0.936372	2.09767							0.888296	1.9872	0.990802	2.21709										
0.876042	1.95268	0.806798	1.78274	0.939357	2.09516							0.892352	1.98756	0.995071	2.21692										
0.880001	1.95297	0.810091	1.7823	0.942351	2.09269							0.896409	1.98791	0.999339	2.21675										
0.883952	1.95325	0.813384	1.78186	0.945357	2.09027							0.900467	1.98827	1.00361	2.21659										
0.887898	1.95351	0.816677	1.78142	0.948373	2.08789							0.904526	1.98863												
0.891836	1.95375	0.81997	1.78099	0.951401	2.08556							0.908587	1.98898												
0.895767	1.95397	0.823262	1.78056	0.95444	2.08327							0.912648	1.98934												
0.89969	1.95417	0.826554	1.78014	0.957491	2.08102							0.916709	1.98969												
0.903605	1.95435	0.829845	1.77971	0.960553	2.07882							0.920772	1.99005												
0.907512	1.95452	0.833136	1.77929	0.963628	2.07667							0.924835	1.9904												
0.91141	1.95466	0.836427	1.77888	0.966716	2.07456							0.928899	1.99074												
0.915299	1.95479	0.839718	1.77846	0.969816	2.0725							0.932963	1.99109												
0.919179	1.95489	0.843009	1.77805	0.972929	2.07048							0.937028	1.99144												
0.923049	1.95497	0.8463	1.77764	0.976056	2.06851							0.941093	1.99178												
0.926909	1.95503	0.84959	1.77724	0.979197	2.06658							0.945159	1.99212												
0.930759	1.95507	0.85288	1.77684	0.982351	2.0647							0.949224	1.99246												
0.934598	1.95509	0.85617	1.77644	0.98552	2.06286							0.95329	1.9928												
0.938425	1.95508	0.859461	1.77604	0.988703	2.06107							0.957356	1.99313												
0.942241	1.95504	0.862751	1.77565	0.991902	2.05932							0.961422	1.99346												
0.946046	1.95499	0.866041	1.77526	0.995116	2.05762							0.965489	1.99379												
0.949838	1.95491	0.869332	1.77487	0.998345	2.05597							0.969555	1.99412												
0.953617	1.9548	0.872622	1.77449	1.00159	2.05436							0.973621	1.99444												
0.957384	1.95467	0.875913	1.77411									0.977687	1.99476												
0.961137	1.95451	0.879203	1.77374									0.981753	1.99508												
0.964876	1.95432	0.882494	1.77336									0.985818	1.99539												
0.968602	1.95411	0.885784	1.77299									0.989883	1.9957												
0.972314	1.95388	0.889075	1.77263									0.993948	1.99601												
0.976011	1.95361	0.892366	1.77226									0.998012	1.99631												
0.979694	1.95332	0.895658	1.7719									1.00208	1.99662												
0.983361	1.953	0.898949	1.77154																						
0.987014	1.95266	0.902241	1.77119																						
0.990652	1.95228	0.905533	1.77084																						
0.994274	1.95188	0.908825	1.77049																						
0.997881	1.95145	0.912117	1.77014																						
1.00147	1.951	0.915409	1.7698																						
		0.918702	1.76946																						
		0.921995	1.76913																						
		0.925288	1.7688																						
		0.928582	1.76847																						
		0.931875	1.76814																						
		0.93517	1.76781																						
		0.938464	1.76749																						
		0.941759	1.76718																						
		0.945054	1.76686																						
		0.948349	1.76655																						
		0.951645	1.76624																						
		0.954941	1.76593																						
		0.958237	1.76563																						
		0.961534	1.76533																						
		0.964831	1.76503																						
		0.968128	1.76474																						
		0.971426	1.76444																						
		0.974724	1.76415																						
		0.978023	1.76387																						
		0.981322	1.76358																						
		0.984621	1.7633																						
		0.987921	1.76302																						
		0.99122	1.76275																						
		0.994521	1.76247																						
		0.997822	1.7622																						
		1.00112	1.76193																						
